t,r(t)
0,0
0.02,0.0002666666
0.04,0.0007999999
0.06,0.0016
0.08,0.002666667
0.09999999,0.004
0.12,0.0056
0.14,0.007466666
0.16,0.0096
0.18,0.012
0.2,0.01466667
0.22,0.0176
0.24,0.0208
0.26,0.02426667
0.28,0.028
0.3,0.032
0.32,0.03626667
0.34,0.04080001
0.36,0.0456
0.38,0.05066667
0.4,0.05600001
0.42,0.06160001
0.44,0.06746668
0.46,0.07360001
0.48,0.08000001
0.5,0.08666667
0.52,0.0936
0.54,0.1008
0.56,0.1082667
0.58,0.116
0.6,0.124
0.62,0.1322667
0.64,0.1408
0.66,0.1496
0.68,0.1586666
0.7,0.168
0.72,0.1776
0.74,0.1874666
0.76,0.1975999
0.78,0.2079999
0.8,0.2186666
0.82,0.2295999
0.84,0.2407999
0.86,0.2522666
0.88,0.2639999
0.9,0.2759999
0.92,0.2882666
0.94,0.3007999
0.96,0.3135999
0.98,0.3266665
1,0.3399999
1.02,0.3535998
1.04,0.3674665
1.06,0.3815998
1.08,0.3959998
1.1,0.4106665
1.12,0.4255998
1.14,0.4407998
1.16,0.4562665
1.18,0.4719998
1.2,0.4879998
1.22,0.5042664
1.24,0.5207998
1.26,0.5375997
1.28,0.5546664
1.3,0.5719997
1.32,0.5895997
1.34,0.6074664
1.36,0.6255997
1.38,0.6439998
1.4,0.6626664
1.42,0.6815997
1.44,0.7007997
1.46,0.7202663
1.48,0.7399997
1.5,0.7599996
1.52,0.7802663
1.54,0.8007996
1.56,0.8215996
1.58,0.8426663
1.6,0.8639996
1.62,0.8855996
1.64,0.9074663
1.66,0.9295996
1.68,0.9519995
1.7,0.9746662
1.72,0.9975995
1.74,1.0208
1.76,1.044266
1.78,1.068
1.8,1.092
1.82,1.116266
1.84,1.140799
1.86,1.165599
1.88,1.190666
1.9,1.215999
1.92,1.241599
1.94,1.267466
1.96,1.293599
1.98,1.319999
2,1.346666
2.02,1.373599
2.04,1.400799
2.06,1.428266
2.08,1.455999
2.1,1.483999
2.12,1.512266
2.14,1.540799
2.16,1.569599
2.18,1.598666
2.2,1.627999
2.22,1.657599
2.24,1.687466
2.26,1.717599
2.28,1.747999
2.3,1.778666
2.32,1.809599
2.34,1.840799
2.36,1.872266
2.38,1.903999
2.4,1.935999
2.42,1.968265
2.44,2.000799
2.46,2.033599
2.48,2.066665
2.5,2.099999
2.52,2.133599
2.54,2.167465
2.56,2.201599
2.58,2.235999
2.6,2.270665
2.62,2.305598
2.64,2.340798
2.66,2.376265
2.68,2.411998
2.7,2.447998
2.72,2.484265
2.74,2.520798
2.76,2.557598
2.78,2.594665
2.8,2.631998
2.82,2.669598
2.84,2.707465
2.86,2.745598
2.88,2.783998
2.9,2.822665
2.92,2.861598
2.94,2.900798
2.96,2.940265
2.98,2.979998
3,3.019998
3.02,3.060265
3.04,3.100532
3.06,3.140798
3.08,3.181065
3.1,3.221332
3.12,3.261599
3.14,3.301865
3.16,3.342132
3.18,3.382399
3.2,3.422666
3.22,3.462932
3.24,3.503199
3.26,3.543466
3.28,3.583733
3.3,3.623999
3.32,3.664266
3.34,3.704533
3.36,3.7448
3.38,3.785066
3.4,3.825333
3.42,3.8656
3.44,3.905867
3.46,3.946133
3.48,3.9864
3.5,4.026667
3.52,4.066933
3.54,4.1072
3.56,4.147466
3.58,4.187733
3.6,4.227999
3.62,4.268266
3.64,4.308532
3.66,4.348799
3.68,4.389065
3.7,4.429332
3.72,4.469598
3.74,4.509865
3.76,4.550131
3.78,4.590398
3.8,4.630664
3.82,4.670931
3.84,4.711197
3.86,4.751464
3.88,4.79173
3.9,4.831997
3.92,4.872263
3.94,4.91253
3.96,4.952796
3.98,4.993063
4,5.033329
4.02,5.072597
4.04,5.110872
4.06,5.148164
4.08,5.18448
4.1,5.219826
4.12,5.254211
4.14,5.28764
4.16,5.320121
4.18,5.35166
4.2,5.382263
4.22,5.411937
4.24,5.440687
4.26,5.468519
4.28,5.495439
4.3,5.521451
4.32,5.546563
4.34,5.570777
4.36,5.5941
4.38,5.616536
4.4,5.638089
4.42,5.658763
4.44,5.678564
4.46,5.697494
4.48,5.715557
4.5,5.732758
4.52,5.749099
4.54,5.764584
4.56,5.779215
4.58,5.792997
4.6,5.805931
4.62,5.818021
4.64,5.829268
4.66,5.839675
4.68,5.849244
4.7,5.857976
4.72,5.865875
4.74,5.87294
4.76,5.879174
4.78,5.884578
4.8,5.889153
4.82,5.8929
4.84,5.895819
4.86,5.897911
4.88,5.899177
4.9,5.899617
4.92,5.89923
4.94,5.898018
4.96,5.895979
4.98,5.893113
5,5.88942
5.02,5.884899
5.04,5.879549
5.06,5.873369
5.08,5.866357
5.1,5.858513
5.12,5.849834
5.14,5.84032
5.16,5.829967
5.18,5.818775
5.2,5.80674
5.22,5.79386
5.24,5.780134
5.26,5.765557
5.28,5.750128
5.3,5.733842
5.32,5.716698
5.34,5.69869
5.36,5.679817
5.38,5.660073
5.4,5.639456
5.42,5.61796
5.44,5.595582
5.46,5.572317
5.48,5.548161
5.5,5.523108
5.52,5.497153
5.54,5.470293
5.56,5.44252
5.58,5.413829
5.6,5.384216
5.62,5.353673
5.64,5.322195
5.66,5.289775
5.68,5.256408
5.7,5.222085
5.72,5.186801
5.74,5.150549
5.76,5.11332
5.78,5.075109
5.8,5.035906
5.82,4.995704
5.84,4.954496
5.86,4.912272
5.88,4.870049
5.9,4.827826
5.92,4.785602
5.94,4.743379
5.96,4.701155
5.98,4.658932
6,4.616708
6.02,4.574485
6.04,4.532261
6.06,4.490038
6.08,4.447814
6.1,4.405591
6.12,4.363368
6.14,4.321144
6.16,4.278921
6.18,4.236697
6.2,4.194474
6.22,4.15225
6.24,4.110027
6.26,4.067803
6.28,4.02558
6.3,3.983356
6.32,3.941133
6.34,3.89891
6.36,3.856686
6.38,3.814463
6.4,3.772239
6.42,3.730016
6.44,3.687792
6.46,3.645569
6.48,3.603345
6.5,3.561122
6.52,3.518898
6.54,3.476675
6.56,3.434452
6.58,3.392228
6.6,3.350005
6.62,3.307781
6.64,3.265558
6.66,3.223334
6.68,3.181111
6.7,3.138887
6.72,3.096664
6.74,3.05444
6.76,3.012217
6.78,2.969994
6.8,2.92777
6.82,2.885547
6.84,2.843323
6.86,2.8011
6.88,2.758876
6.9,2.716653
6.92,2.674429
6.94,2.632206
6.96,2.589983
6.98,2.547759
7,2.505536
7.02,2.463312
7.04,2.421089
7.06,2.378865
7.08,2.336642
7.1,2.294418
7.12,2.252195
7.14,2.209971
7.16,2.167748
7.18,2.125525
7.2,2.083301
7.22,2.041078
7.24,1.998854
7.26,1.95663
7.28,1.914407
7.3,1.872183
7.32,1.82996
7.34,1.787736
7.36,1.745513
7.38,1.703289
7.4,1.661065
7.42,1.618842
7.44,1.576618
7.46,1.534395
7.48,1.492171
7.5,1.449948
7.52,1.407724
7.54,1.3655
7.56,1.323277
7.58,1.281053
7.6,1.23883
7.62,1.196606
7.64,1.154383
7.66,1.112159
7.68,1.069935
7.7,1.027712
7.72,0.9854884
7.74,0.9432648
7.76,0.9010413
7.78,0.8588178
7.8,0.8165943
7.82,0.7743708
7.84,0.7321473
7.86,0.6899238
7.88,0.6477003
7.9,0.6054767
7.92,0.5632532
7.94,0.5210297
7.96,0.4788062
7.98,0.4365827
8,0.3943592
8.02,0.3521357
8.04,0.3099121
8.059999,0.2676886
8.08,0.2254651
8.099999,0.1832416
8.12,0.1410181
8.139999,0.09879457
8.16,0.05657105
8.179999,0.01434753
8.2,-0.02787599
8.22,-0.07009951
8.24,-0.112323
8.26,-0.1545466
8.28,-0.1967701
8.3,-0.2389936
8.32,-0.2812171
8.34,-0.3234406
8.36,-0.3656641
8.38,-0.4078876
8.4,-0.4501112
8.42,-0.4923347
8.44,-0.5345582
8.46,-0.5767817
8.48,-0.6190052
8.5,-0.6612287
8.52,-0.7034522
8.54,-0.7231831
8.559999,-0.7440187
8.58,-0.7650751
8.599999,-0.7861758
8.62,-0.8072854
8.639999,-0.8283967
8.66,-0.8495084
8.679999,-0.8706201
8.7,-0.8917319
8.72,-0.9128436
8.74,-0.9339553
8.76,-0.955067
8.78,-0.9761788
8.8,-0.9972905
8.82,-1.018402
8.84,-1.039514
8.86,-1.060626
8.88,-1.081737
8.9,-1.102849
8.92,-1.123961
8.94,-1.145073
8.96,-1.166184
8.98,-1.187296
9,-1.208408
9.02,-1.229519
9.04,-1.250631
9.059999,-1.271743
9.08,-1.292855
9.099999,-1.313966
9.12,-1.335078
9.139999,-1.35619
9.16,-1.377302
9.179999,-1.398413
9.2,-1.419525
9.22,-1.440637
9.24,-1.461748
9.26,-1.48286
9.28,-1.503972
9.3,-1.525084
9.32,-1.546195
9.34,-1.567307
9.36,-1.588419
9.38,-1.609531
9.4,-1.630642
9.42,-1.651754
9.44,-1.672866
9.46,-1.693977
9.48,-1.715089
9.5,-1.736201
9.52,-1.757313
9.54,-1.778424
9.559999,-1.799536
9.58,-1.820648
9.599999,-1.84176
9.62,-1.862871
9.639999,-1.883983
9.66,-1.905095
9.679999,-1.926206
9.7,-1.947318
9.719999,-1.96843
9.74,-1.989542
9.76,-2.010653
9.78,-2.031765
9.8,-2.052877
9.82,-2.073988
9.84,-2.0951
9.86,-2.116212
9.88,-2.137324
9.9,-2.158435
9.92,-2.179547
9.94,-2.200659
9.96,-2.221771
9.98,-2.242882
10,-2.263994
10.02,-2.285106
10.04,-2.306217
10.06,-2.327329
10.08,-2.348441
10.1,-2.369553
10.12,-2.390664
10.14,-2.411776
10.16,-2.432888
10.18,-2.454
10.2,-2.475111
10.22,-2.496223
10.24,-2.517335
10.26,-2.538447
10.28,-2.559558
10.3,-2.58067
10.32,-2.601782
10.34,-2.622894
10.36,-2.644006
10.38,-2.665118
10.4,-2.686229
10.42,-2.707341
10.44,-2.728453
10.46,-2.749565
10.48,-2.770676
10.5,-2.791788
10.52,-2.8129
10.54,-2.834012
10.56,-2.855124
10.58,-2.876235
10.6,-2.897347
10.62,-2.918459
10.64,-2.939571
10.66,-2.960683
10.68,-2.981795
10.7,-3.002906
10.72,-3.024018
10.74,-3.04513
10.76,-3.066242
10.78,-3.087353
10.8,-3.108465
10.82,-3.129577
10.84,-3.150689
10.86,-3.171801
10.88,-3.192913
10.9,-3.214024
10.92,-3.235136
10.94,-3.256248
10.96,-3.27736
10.98,-3.298472
11,-3.319583
11.02,-3.340695
11.04,-3.361807
11.06,-3.382919
11.08,-3.404031
11.1,-3.425143
11.12,-3.446254
11.14,-3.467366
11.16,-3.488478
11.18,-3.50959
11.2,-3.530701
11.22,-3.551813
11.24,-3.572925
11.26,-3.594037
11.28,-3.615149
11.3,-3.636261
11.32,-3.657372
11.34,-3.678484
11.36,-3.699596
11.38,-3.720708
11.4,-3.74182
11.42,-3.762931
11.44,-3.784043
11.46,-3.805155
11.48,-3.826267
11.5,-3.847378
11.52,-3.86849
11.54,-3.889602
11.56,-3.910714
11.58,-3.931826
11.6,-3.952938
11.62,-3.974049
11.64,-3.995161
11.66,-4.016273
11.68,-4.037385
11.7,-4.058497
11.72,-4.079609
11.74,-4.100721
11.76,-4.121833
11.78,-4.142945
11.8,-4.164057
11.82,-4.185169
11.84,-4.206281
11.86,-4.227393
11.88,-4.248505
11.9,-4.269617
11.92,-4.290729
11.94,-4.311841
11.96,-4.332952
11.98,-4.354064
12,-4.375176
12.02,-4.396288
12.04,-4.4174
12.06,-4.438512
12.08,-4.459624
12.1,-4.480736
12.12,-4.501848
12.14,-4.52296
12.16,-4.544072
12.18,-4.565184
12.2,-4.586296
12.22,-4.607408
12.24,-4.62852
12.26,-4.649632
12.28,-4.670744
12.3,-4.691856
12.32,-4.712968
12.34,-4.73408
12.36,-4.755192
12.38,-4.776304
12.4,-4.797416
12.42,-4.818528
12.44,-4.83964
12.46,-4.860752
12.48,-4.881864
12.5,-4.902976
12.52,-4.924088
12.54,-4.945199
12.56,-4.966311
12.58,-4.987423
12.6,-5.008535
12.62,-5.029647
12.64,-5.050759
12.66,-5.071871
12.68,-5.092983
12.7,-5.114095
12.72,-5.135207
12.74,-5.156319
12.76,-5.177431
12.78,-5.198543
12.8,-5.219655
12.82,-5.240767
12.84,-5.261879
12.86,-5.282991
12.88,-5.304103
12.9,-5.325215
12.92,-5.346327
12.94,-5.367439
12.96,-5.388551
12.98,-5.409663
13,-5.430775
13.02,-5.451887
13.04,-5.472999
13.06,-5.494111
13.08,-5.515223
13.1,-5.536335
13.12,-5.557446
13.14,-5.578558
13.16,-5.59967
13.18,-5.620782
13.2,-5.641894
13.22,-5.663006
13.24,-5.684118
13.26,-5.70523
13.28,-5.726342
13.3,-5.747454
13.32,-5.768566
13.34,-5.789678
13.36,-5.81079
13.38,-5.831902
13.4,-5.853014
13.42,-5.874126
13.44,-5.895238
13.46,-5.91635
13.48,-5.937462
13.5,-5.958574
13.52,-5.979686
13.54,-6.000798
13.56,-6.02191
13.58,-6.043022
13.6,-6.064134
13.62,-6.085246
13.64,-6.106358
13.66,-6.12747
13.68,-6.148582
13.7,-6.169693
13.72,-6.190805
13.74,-6.211917
13.76,-6.233029
13.78,-6.254141
13.8,-6.275253
13.82,-6.296365
13.84,-6.317477
13.86,-6.338589
13.88,-6.359701
13.9,-6.380813
13.92,-6.401925
13.94,-6.423037
13.96,-6.444149
13.98,-6.465261
14,-6.486373
14.02,-6.507485
14.04,-6.528596
14.06,-6.549708
14.08,-6.570819
14.1,-6.591931
14.12,-6.613042
14.14,-6.634154
14.16,-6.655265
14.18,-6.676377
14.2,-6.697488
14.22,-6.7186
14.24,-6.739711
14.26,-6.760823
14.28,-6.781934
14.3,-6.803046
14.32,-6.824157
14.34,-6.845269
14.36,-6.86638
14.38,-6.887492
14.4,-6.908603
14.42,-6.929715
14.44,-6.950826
14.46,-6.971938
14.48,-6.993049
14.5,-7.014161
14.52,-7.035272
14.54,-7.056384
14.56,-7.077495
14.58,-7.098607
14.6,-7.119718
14.62,-7.14083
14.64,-7.161941
14.66,-7.183053
14.68,-7.204164
14.7,-7.225276
14.72,-7.246387
14.74,-7.267498
14.76,-7.28861
14.78,-7.309721
14.8,-7.330833
14.82,-7.351944
14.84,-7.373056
14.86,-7.394167
14.88,-7.415279
14.9,-7.43639
14.92,-7.457502
14.94,-7.478613
14.96,-7.499725
14.98,-7.520836
15,-7.541948
15.02,-7.563059
15.04,-7.584171
15.06,-7.605282
15.08,-7.626394
15.1,-7.647505
15.12,-7.668617
15.14,-7.689728
15.16,-7.71084
15.18,-7.731951
15.2,-7.753063
15.22,-7.774174
15.24,-7.795286
15.26,-7.816397
15.28,-7.837509
15.3,-7.85862
15.32,-7.879732
15.34,-7.900843
15.36,-7.921955
15.38,-7.943066
15.4,-7.964178
15.42,-7.985289
15.44,-8.006401
15.46,-8.027513
15.48,-8.048624
15.5,-8.069736
15.52,-8.090847
15.54,-8.111959
15.56,-8.13307
15.58,-8.154181
15.6,-8.175293
15.62,-8.196404
15.64,-8.217516
15.66,-8.238627
15.68,-8.259739
15.7,-8.28085
15.72,-8.301962
15.74,-8.323073
15.76,-8.344185
15.78,-8.365296
15.8,-8.386408
15.82,-8.407519
15.84,-8.428631
15.86,-8.449742
15.88,-8.470854
15.9,-8.491965
15.92,-8.513077
15.94,-8.534188
15.96,-8.5553
15.98,-8.576411
16,-8.597523
16.02,-8.618634
16.04,-8.639746
16.06,-8.660857
16.08,-8.681969
16.1,-8.70308
16.12,-8.724192
16.14,-8.745303
16.16,-8.766415
16.18,-8.787526
16.2,-8.808638
16.22,-8.829749
16.24,-8.850861
16.26,-8.871972
16.28,-8.893084
16.3,-8.914195
16.32,-8.935307
16.34,-8.956418
16.36,-8.97753
16.38,-8.998641
16.4,-9.019753
16.42,-9.040864
16.44,-9.061975
16.46,-9.083087
16.48,-9.104198
16.5,-9.12531
16.52,-9.146421
16.54,-9.167533
16.56,-9.188644
16.58,-9.209756
16.6,-9.230867
16.62,-9.251979
16.64,-9.27309
16.66,-9.294202
16.68,-9.315313
16.7,-9.336425
16.72,-9.357536
16.74,-9.378648
16.76,-9.399759
16.78,-9.420871
16.8,-9.441982
16.82,-9.463094
16.84,-9.484205
16.86,-9.505317
16.88,-9.526428
16.9,-9.54754
16.92,-9.568651
16.94,-9.589763
16.96,-9.610874
16.98,-9.631986
17,-9.653097
17.02,-9.674209
17.04,-9.69532
17.06,-9.716432
17.08,-9.737543
17.1,-9.758655
17.12,-9.779766
17.14,-9.800878
17.16,-9.821989
17.18,-9.843101
17.2,-9.864212
17.22,-9.885324
17.24,-9.906435
17.26,-9.927547
17.28,-9.948658
17.3,-9.969769
17.32,-9.990881
17.34,-10.01199
17.36,-10.0331
17.38,-10.05422
17.4,-10.07533
17.42,-10.09644
17.44,-10.11755
17.46,-10.13866
17.48,-10.15977
17.5,-10.18088
17.52,-10.202
17.54,-10.22311
17.56,-10.24422
17.58,-10.26533
17.6,-10.28644
17.62,-10.30755
17.64,-10.32866
17.66,-10.34978
17.68,-10.37089
17.7,-10.392
17.72,-10.41311
17.74,-10.43422
17.76,-10.45533
17.78,-10.47645
17.8,-10.49756
17.82,-10.51867
17.84,-10.53978
17.86,-10.56089
17.88,-10.582
17.9,-10.60311
17.92,-10.62423
17.94,-10.64534
17.96,-10.66645
17.98,-10.68756
18,-10.70867
18.02,-10.72978
18.04,-10.75089
18.06,-10.77201
18.08,-10.79312
18.1,-10.81423
18.12,-10.83534
18.14,-10.85645
18.16,-10.87756
18.18,-10.89867
18.2,-10.91979
18.22,-10.9409
18.24,-10.96201
18.26,-10.98312
18.28,-11.00423
18.3,-11.02534
18.32,-11.04646
18.34,-11.06757
18.36,-11.08868
18.38,-11.10979
18.4,-11.1309
18.42,-11.15201
18.44,-11.17312
18.46,-11.19424
18.48,-11.21535
18.5,-11.23646
18.52,-11.25757
18.54,-11.27868
18.56,-11.29979
18.58,-11.3209
18.6,-11.34202
18.62,-11.36313
18.64,-11.38424
18.66,-11.40535
18.68,-11.42646
18.7,-11.44757
18.72,-11.46869
18.74,-11.4898
18.76,-11.51091
18.78,-11.53202
18.8,-11.55313
18.82,-11.57424
18.84,-11.59535
18.86,-11.61647
18.88,-11.63758
18.9,-11.65869
18.92,-11.6798
18.94,-11.70091
18.96,-11.72202
18.98,-11.74313
19,-11.76425
19.02,-11.78536
19.04,-11.80647
19.06,-11.82758
19.08,-11.84869
19.1,-11.8698
19.12,-11.89091
19.14,-11.91203
19.16,-11.93314
19.18,-11.95425
19.2,-11.97536
19.22,-11.99647
19.24,-12.01758
19.26,-12.0387
19.28,-12.05981
19.3,-12.08092
19.32,-12.10203
19.34,-12.12314
19.36,-12.14425
19.38,-12.16536
19.4,-12.18648
19.42,-12.20759
19.44,-12.2287
19.46,-12.24981
19.48,-12.27092
19.5,-12.29203
19.52,-12.31314
19.54,-12.33426
19.56,-12.35537
19.58,-12.37648
19.6,-12.39759
19.62,-12.4187
19.64,-12.43981
19.66,-12.46093
19.68,-12.48204
19.7,-12.50315
19.72,-12.52426
19.74,-12.54537
19.76,-12.56648
19.78,-12.58759
19.8,-12.60871
19.82,-12.62982
19.84,-12.65093
19.86,-12.67204
19.88,-12.69315
19.9,-12.71426
19.92,-12.73537
19.94,-12.75649
19.96,-12.7776
19.98,-12.79871
20,-12.81982
20.02,-12.84093
20.04,-12.86204
20.06,-12.88315
20.08,-12.90427
20.1,-12.92538
20.12,-12.94649
20.14,-12.9676
20.16,-12.98871
20.18,-13.00982
20.2,-13.03094
20.22,-13.05205
20.24,-13.07316
20.26,-13.09427
20.28,-13.11538
20.3,-13.13649
20.32,-13.1576
20.34,-13.17872
20.36,-13.19983
20.38,-13.22094
20.4,-13.24205
20.42,-13.26316
20.44,-13.28427
20.46,-13.30538
20.48,-13.3265
20.5,-13.34761
20.52,-13.36872
20.54,-13.38983
20.56,-13.41094
20.58,-13.43205
20.6,-13.45317
20.62,-13.47428
20.64,-13.49539
20.66,-13.5165
20.68,-13.53761
20.7,-13.55872
20.72,-13.57983
20.74,-13.60095
20.76,-13.62206
20.78,-13.64317
20.8,-13.66428
20.82,-13.68539
20.84,-13.7065
20.86,-13.72761
20.88,-13.74873
20.9,-13.76984
20.92,-13.79095
20.94,-13.81206
20.96,-13.83317
20.98,-13.85428
21,-13.87539
21.02,-13.89651
21.04,-13.91762
21.06,-13.93873
21.08,-13.95984
21.1,-13.98095
21.12,-14.00206
21.14,-14.02318
21.16,-14.04429
21.18,-14.0654
21.2,-14.08651
21.22,-14.10762
21.24,-14.12873
21.26,-14.14984
21.28,-14.17096
21.3,-14.19207
21.32,-14.21318
21.34,-14.23429
21.36,-14.2554
21.38,-14.27651
21.4,-14.29762
21.42,-14.31874
21.44,-14.33985
21.46,-14.36096
21.48,-14.38207
21.5,-14.40318
21.52,-14.42429
21.54,-14.44541
21.56,-14.46652
21.58,-14.48763
21.6,-14.50874
21.62,-14.52985
21.64,-14.55096
21.66,-14.57207
21.68,-14.59319
21.7,-14.6143
21.72,-14.63541
21.74,-14.65652
21.76,-14.67763
21.78,-14.69875
21.8,-14.71986
21.82,-14.74097
21.84,-14.76208
21.86,-14.78319
21.88,-14.80431
21.9,-14.82542
21.92,-14.84653
21.94,-14.86764
21.96,-14.88875
21.98,-14.90986
22,-14.93098
22.02,-14.95209
22.04,-14.9732
22.06,-14.99431
22.08,-15.01542
22.1,-15.03653
22.12,-15.05765
22.14,-15.07876
22.16,-15.09987
22.18,-15.12098
22.2,-15.14209
22.22,-15.16321
22.24,-15.18432
22.26,-15.20543
22.28,-15.22654
22.3,-15.24765
22.32,-15.26876
22.34,-15.28988
22.36,-15.31099
22.38,-15.3321
22.4,-15.35321
22.42,-15.37432
22.44,-15.39544
22.46,-15.41655
22.48,-15.43766
22.5,-15.45877
22.52,-15.47988
22.54,-15.50099
22.56,-15.52211
22.58,-15.54322
22.6,-15.56433
22.62,-15.58544
22.64,-15.60655
22.66,-15.62767
22.68,-15.64878
22.7,-15.66989
22.72,-15.691
22.74,-15.71211
22.76,-15.73322
22.78,-15.75434
22.8,-15.77545
22.82,-15.79656
22.84,-15.81767
22.86,-15.83878
22.88,-15.85989
22.9,-15.88101
22.92,-15.90212
22.94,-15.92323
22.96,-15.94434
22.98,-15.96545
23,-15.98657
23.02,-16.00768
23.04,-16.02879
23.06,-16.0499
23.08,-16.07101
23.1,-16.09213
23.12,-16.11324
23.14,-16.13435
23.16,-16.15546
23.18,-16.17658
23.2,-16.19769
23.22,-16.2188
23.24,-16.23991
23.26,-16.26103
23.28,-16.28214
23.3,-16.30325
23.32,-16.32436
23.34,-16.34548
23.36,-16.36659
23.38,-16.3877
23.4,-16.40881
23.42,-16.42993
23.44,-16.45104
23.46,-16.47215
23.48,-16.49326
23.5,-16.51438
23.52,-16.53549
23.54,-16.5566
23.56,-16.57771
23.58,-16.59883
23.6,-16.61994
23.62,-16.64105
23.64,-16.66216
23.66,-16.68328
23.68,-16.70439
23.7,-16.7255
23.72,-16.74661
23.74,-16.76772
23.76,-16.78884
