t,r(t)
0,-2.2
0.02,-2.2
0.04,-2.2
0.06,-2.2
0.08,-2.2
0.09999999,-2.2
0.12,-2.2
0.14,-2.2
0.16,-2.2
0.18,-2.2
0.2,-2.2
0.22,-2.2
0.24,-2.2
0.26,-2.2
0.28,-2.2
0.3,-2.2
0.32,-2.2
0.34,-2.2
0.36,-2.2
0.38,-2.2
0.4,-2.2
0.42,-2.2
0.44,-2.2
0.46,-2.2
0.48,-2.2
0.5,-2.2
0.52,-2.2
0.54,-2.2
0.56,-2.2
0.58,-2.2
0.6,-2.2
0.62,-2.2
0.64,-2.2
0.66,-2.2
0.68,-2.2
0.7,-2.2
0.72,-2.2
0.74,-2.2
0.76,-2.2
0.78,-2.2
0.8,-2.2
0.82,-2.2
0.84,-2.2
0.86,-2.2
0.88,-2.2
0.9,-2.2
0.92,-2.2
0.94,-2.2
0.96,-2.2
0.98,-2.2
1,-2.2
1.02,-2.2
1.04,-2.2
1.06,-2.2
1.08,-2.2
1.1,-2.2
1.12,-2.2
1.14,-2.2
1.16,-2.2
1.18,-2.2
1.2,-2.2
1.22,-2.2
1.24,-2.2
1.26,-2.2
1.28,-2.2
1.3,-2.2
1.32,-2.2
1.34,-2.2
1.36,-2.2
1.38,-2.2
1.4,-2.2
1.42,-2.2
1.44,-2.2
1.46,-2.2
1.48,-2.2
1.5,-2.2
1.52,-2.2
1.54,-2.2
1.56,-2.2
1.58,-2.2
1.6,-2.2
1.62,-2.2
1.64,-2.2
1.66,-2.2
1.68,-2.2
1.7,-2.2
1.72,-2.2
1.74,-2.2
1.76,-2.2
1.78,-2.2
1.8,-2.2
1.82,-2.2
1.84,-2.2
1.86,-2.2
1.88,-2.2
1.9,-2.2
1.92,-2.2
1.94,-2.2
1.96,-2.2
1.98,-2.2
2,-2.2
2.02,-2.2
2.04,-2.2
2.06,-2.2
2.08,-2.2
2.1,-2.2
2.12,-2.2
2.14,-2.2
2.16,-2.2
2.18,-2.2
2.2,-2.2
2.22,-2.2
2.24,-2.2
2.26,-2.2
2.28,-2.2
2.3,-2.2
2.32,-2.2
2.34,-2.2
2.36,-2.2
2.38,-2.2
2.4,-2.2
2.42,-2.2
2.44,-2.2
2.46,-2.2
2.48,-2.2
2.5,-2.2
2.52,-2.2
2.54,-2.2
2.56,-2.2
2.58,-2.2
2.6,-2.2
2.62,-2.2
2.64,-2.2
2.66,-2.2
2.68,-2.2
2.7,-2.2
2.72,-2.2
2.74,-2.2
2.76,-2.2
2.78,-2.2
2.8,-2.2
2.82,-2.2
2.84,-2.2
2.86,-2.2
2.88,-2.2
2.9,-2.2
2.92,-2.2
2.94,-2.2
2.96,-2.2
2.98,-2.2
3,-2.2
3.02,-2.2
3.04,-2.2
3.06,-2.2
3.08,-2.2
3.1,-2.2
3.12,-2.2
3.14,-2.2
3.16,-2.2
3.18,-2.2
3.2,-2.2
3.22,-2.2
3.24,-2.2
3.26,-2.2
3.28,-2.2
3.3,-2.2
3.32,-2.2
3.34,-2.2
3.36,-2.2
3.38,-2.2
3.4,-2.2
3.42,-2.2
3.44,-2.2
3.46,-2.2
3.48,-2.2
3.5,-2.2
3.52,-2.2
3.54,-2.2
3.56,-2.2
3.58,-2.2
3.6,-2.2
3.62,-2.2
3.64,-2.2
3.66,-2.2
3.68,-2.2
3.7,-2.2
3.72,-2.2
3.74,-2.2
3.76,-2.2
3.78,-2.2
3.8,-2.2
3.82,-2.2
3.84,-2.2
3.86,-2.2
3.88,-2.2
3.9,-2.2
3.92,-2.2
3.94,-2.2
3.96,-2.2
3.98,-2.2
4,-2.2
4.02,-2.2
4.04,-2.2
4.06,-2.2
4.08,-2.2
4.1,-2.2
4.12,-2.2
4.14,-2.2
4.16,-2.2
4.18,-2.2
4.2,-2.2
4.22,-2.2
4.24,-2.2
4.26,-2.2
4.28,-2.2
4.3,-2.2
4.32,-2.2
4.34,-2.2
4.36,-2.2
4.38,-2.2
4.4,-2.2
4.42,-2.2
4.44,-2.2
4.46,-2.2
4.48,-2.2
4.5,-2.2
4.52,-2.2
4.54,-2.2
4.56,-2.2
4.58,-2.2
4.6,-2.2
4.62,-2.2
4.64,-2.2
4.66,-2.2
4.68,-2.2
4.7,-2.2
4.72,-2.2
4.74,-2.2
4.76,-2.2
4.78,-2.2
4.8,-2.2
4.82,-2.2
4.84,-2.2
4.86,-2.2
4.88,-2.2
4.9,-2.2
4.92,-2.2
4.94,-2.2
4.96,-2.2
4.98,-2.2
5,-2.2
5.02,-2.2
5.04,-2.2
5.06,-2.2
5.08,-2.2
5.1,-2.2
5.12,-2.2
5.14,-2.2
5.16,-2.2
5.18,-2.2
5.2,-2.2
5.22,-2.2
5.24,-2.2
5.26,-2.2
5.28,-2.2
5.3,-2.2
5.32,-2.2
5.34,-2.2
5.36,-2.2
5.38,-2.2
5.4,-2.2
5.42,-2.2
5.44,-2.2
5.46,-2.2
5.48,-2.2
5.5,-2.2
5.52,-2.2
5.54,-2.2
5.56,-2.2
5.58,-2.2
5.6,-2.2
5.62,-2.2
5.64,-2.2
5.66,-2.2
5.68,-2.2
5.7,-2.2
5.72,-2.2
5.74,-2.2
5.76,-2.2
5.78,-2.2
5.8,-2.2
5.82,-2.2
5.84,-2.2
5.86,-2.2
5.88,-2.2
5.9,-2.2
5.92,-2.2
5.94,-2.2
5.96,-2.2
5.98,-2.2
6,-2.2
6.02,-2.2
6.04,-2.2
6.06,-2.2
6.08,-2.2
6.1,-2.2
6.12,-2.2
6.14,-2.2
6.16,-2.2
6.18,-2.2
6.2,-2.2
6.22,-2.2
6.24,-2.2
6.26,-2.2
6.28,-2.2
6.3,-2.2
6.32,-2.2
6.34,-2.2
6.36,-2.2
6.38,-2.2
6.4,-2.2
6.42,-2.2
6.44,-2.2
6.46,-2.2
6.48,-2.2
6.5,-2.2
6.52,-2.2
6.54,-2.2
6.56,-2.2
6.58,-2.2
6.6,-2.2
6.62,-2.2
6.64,-2.2
6.66,-2.2
6.68,-2.2
6.7,-2.2
6.72,-2.2
6.74,-2.2
6.76,-2.2
6.78,-2.2
6.8,-2.2
6.82,-2.2
6.84,-2.2
6.86,-2.2
6.88,-2.2
6.9,-2.2
6.92,-2.2
6.94,-2.2
6.96,-2.2
6.98,-2.2
7,-2.2
7.02,-2.2
7.04,-2.2
7.06,-2.2
7.08,-2.2
7.1,-2.2
7.12,-2.2
7.14,-2.2
7.16,-2.2
7.18,-2.2
7.2,-2.2
7.22,-2.2
7.24,-2.2
7.26,-2.2
7.28,-2.2
7.3,-2.2
7.32,-2.2
7.34,-2.2
7.36,-2.2
7.38,-2.2
7.4,-2.2
7.42,-2.2
7.44,-2.2
7.46,-2.2
7.48,-2.2
7.5,-2.2
7.52,-2.2
7.54,-2.2
7.56,-2.2
7.58,-2.2
7.6,-2.2
7.62,-2.2
7.64,-2.2
7.66,-2.2
7.68,-2.2
7.7,-2.2
7.72,-2.2
7.74,-2.2
7.76,-2.2
7.78,-2.2
7.8,-2.2
7.82,-2.2
7.84,-2.2
7.86,-2.2
7.88,-2.2
7.9,-2.2
7.92,-2.2
7.94,-2.2
7.96,-2.2
7.98,-2.2
8,-2.2
8.02,-2.2
8.04,-2.2
8.059999,-2.2
8.08,-2.2
8.099999,-2.2
8.12,-2.2
8.139999,-2.2
8.16,-2.2
8.179999,-2.2
8.2,-2.2
8.22,-2.2
8.24,-2.2
8.26,-2.2
8.28,-2.2
8.3,-2.2
8.32,-2.2
8.34,-2.2
8.36,-2.2
8.38,-2.2
8.4,-2.2
8.42,-2.2
8.44,-2.2
8.46,-2.2
8.48,-2.2
8.5,-2.2
8.52,-2.2
8.54,-2.222493
8.559999,-2.243881
8.58,-2.265048
8.599999,-2.28617
8.62,-2.307284
8.639999,-2.328397
8.66,-2.349508
8.679999,-2.37062
8.7,-2.391732
8.72,-2.412843
8.74,-2.433955
8.76,-2.455067
8.78,-2.476179
8.8,-2.49729
8.82,-2.518402
8.84,-2.539514
8.86,-2.560626
8.88,-2.581737
8.9,-2.602849
8.92,-2.623961
8.94,-2.645072
8.96,-2.666184
8.98,-2.687296
9,-2.708408
9.02,-2.729519
9.04,-2.750631
9.059999,-2.771743
9.08,-2.792855
9.099999,-2.813966
9.12,-2.835078
9.139999,-2.85619
9.16,-2.877301
9.179999,-2.898413
9.2,-2.919525
9.22,-2.940637
9.24,-2.961748
9.26,-2.98286
9.28,-3.003972
9.3,-3.025084
9.32,-3.046195
9.34,-3.067307
9.36,-3.088419
9.38,-3.10953
9.4,-3.130642
9.42,-3.151754
9.44,-3.172866
9.46,-3.193977
9.48,-3.215089
9.5,-3.236201
9.52,-3.257313
9.54,-3.278424
9.559999,-3.299536
9.58,-3.320648
9.599999,-3.341759
9.62,-3.362871
9.639999,-3.383983
9.66,-3.405095
9.679999,-3.426206
9.7,-3.447318
9.719999,-3.46843
9.74,-3.489542
9.76,-3.510653
9.78,-3.531765
9.8,-3.552877
9.82,-3.573988
9.84,-3.5951
9.86,-3.616212
9.88,-3.637324
9.9,-3.658435
9.92,-3.679547
9.94,-3.700659
9.96,-3.721771
9.98,-3.742882
10,-3.763994
10.02,-3.785106
10.04,-3.806217
10.06,-3.827329
10.08,-3.848441
10.1,-3.869553
10.12,-3.890664
10.14,-3.911776
10.16,-3.932888
10.18,-3.954
10.2,-3.975111
10.22,-3.996223
10.24,-4.017335
10.26,-4.038446
10.28,-4.059558
10.3,-4.08067
10.32,-4.101782
10.34,-4.122894
10.36,-4.144006
10.38,-4.165117
10.4,-4.186229
10.42,-4.207341
10.44,-4.228453
10.46,-4.249565
10.48,-4.270677
10.5,-4.291788
10.52,-4.3129
10.54,-4.334012
10.56,-4.355124
10.58,-4.376235
10.6,-4.397347
10.62,-4.418459
10.64,-4.439571
10.66,-4.460683
10.68,-4.481794
10.7,-4.502906
10.72,-4.524018
10.74,-4.54513
10.76,-4.566242
10.78,-4.587354
10.8,-4.608465
10.82,-4.629577
10.84,-4.650689
10.86,-4.671801
10.88,-4.692913
10.9,-4.714025
10.92,-4.735136
10.94,-4.756248
10.96,-4.77736
10.98,-4.798471
11,-4.819583
11.02,-4.840695
11.04,-4.861807
11.06,-4.882919
11.08,-4.904031
11.1,-4.925142
11.12,-4.946254
11.14,-4.967366
11.16,-4.988478
11.18,-5.00959
11.2,-5.030702
11.22,-5.051813
11.24,-5.072925
11.26,-5.094037
11.28,-5.115149
11.3,-5.136261
11.32,-5.157372
11.34,-5.178484
11.36,-5.199596
11.38,-5.220708
11.4,-5.241819
11.42,-5.262931
11.44,-5.284043
11.46,-5.305155
11.48,-5.326267
11.5,-5.347379
11.52,-5.36849
11.54,-5.389602
11.56,-5.410714
11.58,-5.431826
11.6,-5.452938
11.62,-5.47405
11.64,-5.495161
11.66,-5.516273
11.68,-5.537385
11.7,-5.558497
11.72,-5.579609
11.74,-5.600721
11.76,-5.621833
11.78,-5.642945
11.8,-5.664057
11.82,-5.685169
11.84,-5.706281
11.86,-5.727393
11.88,-5.748505
11.9,-5.769617
11.92,-5.790729
11.94,-5.811841
11.96,-5.832952
11.98,-5.854064
12,-5.875176
12.02,-5.896288
12.04,-5.9174
12.06,-5.938512
12.08,-5.959624
12.1,-5.980736
12.12,-6.001848
12.14,-6.02296
12.16,-6.044072
12.18,-6.065184
12.2,-6.086296
12.22,-6.107408
12.24,-6.12852
12.26,-6.149632
12.28,-6.170744
12.3,-6.191856
12.32,-6.212968
12.34,-6.23408
12.36,-6.255192
12.38,-6.276304
12.4,-6.297416
12.42,-6.318528
12.44,-6.33964
12.46,-6.360752
12.48,-6.381864
12.5,-6.402976
12.52,-6.424088
12.54,-6.445199
12.56,-6.466311
12.58,-6.487423
12.6,-6.508535
12.62,-6.529647
12.64,-6.550759
12.66,-6.571871
12.68,-6.592983
12.7,-6.614095
12.72,-6.635207
12.74,-6.656319
12.76,-6.677431
12.78,-6.698543
12.8,-6.719655
12.82,-6.740767
12.84,-6.761879
12.86,-6.782991
12.88,-6.804103
12.9,-6.825215
12.92,-6.846327
12.94,-6.867439
12.96,-6.888551
12.98,-6.909663
13,-6.930775
13.02,-6.951887
13.04,-6.972999
13.06,-6.994111
13.08,-7.015223
13.1,-7.036335
13.12,-7.057446
13.14,-7.078558
13.16,-7.09967
13.18,-7.120782
13.2,-7.141894
13.22,-7.163006
13.24,-7.184118
13.26,-7.20523
13.28,-7.226342
13.3,-7.247454
13.32,-7.268566
13.34,-7.289678
13.36,-7.31079
13.38,-7.331902
13.4,-7.353014
13.42,-7.374126
13.44,-7.395238
13.46,-7.41635
13.48,-7.437462
13.5,-7.458574
13.52,-7.479686
13.54,-7.500798
13.56,-7.52191
13.58,-7.543022
13.6,-7.564134
13.62,-7.585246
13.64,-7.606358
13.66,-7.62747
13.68,-7.648582
13.7,-7.669693
13.72,-7.690805
13.74,-7.711917
13.76,-7.733029
13.78,-7.754141
13.8,-7.775253
13.82,-7.796365
13.84,-7.817477
13.86,-7.838589
13.88,-7.859701
13.9,-7.880813
13.92,-7.901925
13.94,-7.923037
13.96,-7.944149
13.98,-7.965261
14,-7.986373
14.02,-8.007484
14.04,-8.028596
14.06,-8.049707
14.08,-8.070819
14.1,-8.09193
14.12,-8.113042
14.14,-8.134153
14.16,-8.155265
14.18,-8.176376
14.2,-8.197488
14.22,-8.218599
14.24,-8.239711
14.26,-8.260822
14.28,-8.281934
14.3,-8.303045
14.32,-8.324157
14.34,-8.345268
14.36,-8.36638
14.38,-8.387491
14.4,-8.408603
14.42,-8.429714
14.44,-8.450826
14.46,-8.471937
14.48,-8.493049
14.5,-8.51416
14.52,-8.535272
14.54,-8.556383
14.56,-8.577495
14.58,-8.598606
14.6,-8.619718
14.62,-8.640829
14.64,-8.661941
14.66,-8.683052
14.68,-8.704164
14.7,-8.725275
14.72,-8.746387
14.74,-8.767498
14.76,-8.78861
14.78,-8.809721
14.8,-8.830832
14.82,-8.851944
14.84,-8.873055
14.86,-8.894167
14.88,-8.915278
14.9,-8.93639
14.92,-8.957501
14.94,-8.978613
14.96,-8.999724
14.98,-9.020836
15,-9.041947
15.02,-9.063059
15.04,-9.08417
15.06,-9.105282
15.08,-9.126393
15.1,-9.147505
15.12,-9.168616
15.14,-9.189728
15.16,-9.210839
15.18,-9.231951
15.2,-9.253062
15.22,-9.274174
15.24,-9.295285
15.26,-9.316397
15.28,-9.337508
15.3,-9.35862
15.32,-9.379731
15.34,-9.400843
15.36,-9.421954
15.38,-9.443066
15.4,-9.464177
15.42,-9.485289
15.44,-9.5064
15.46,-9.527513
15.48,-9.548624
15.5,-9.569736
15.52,-9.590847
15.54,-9.611959
15.56,-9.63307
15.58,-9.654181
15.6,-9.675293
15.62,-9.696404
15.64,-9.717516
15.66,-9.738627
15.68,-9.759739
15.7,-9.78085
15.72,-9.801962
15.74,-9.823073
15.76,-9.844185
15.78,-9.865296
15.8,-9.886408
15.82,-9.907519
15.84,-9.928631
15.86,-9.949742
15.88,-9.970854
15.9,-9.991965
15.92,-10.01308
15.94,-10.03419
15.96,-10.0553
15.98,-10.07641
16,-10.09752
16.02,-10.11863
16.04,-10.13975
16.06,-10.16086
16.08,-10.18197
16.1,-10.20308
16.12,-10.22419
16.14,-10.2453
16.16,-10.26641
16.18,-10.28753
16.2,-10.30864
16.22,-10.32975
16.24,-10.35086
16.26,-10.37197
16.28,-10.39308
16.3,-10.4142
16.32,-10.43531
16.34,-10.45642
16.36,-10.47753
16.38,-10.49864
16.4,-10.51975
16.42,-10.54086
16.44,-10.56198
16.46,-10.58309
16.48,-10.6042
16.5,-10.62531
16.52,-10.64642
16.54,-10.66753
16.56,-10.68864
16.58,-10.70976
16.6,-10.73087
16.62,-10.75198
16.64,-10.77309
16.66,-10.7942
16.68,-10.81531
16.7,-10.83642
16.72,-10.85754
16.74,-10.87865
16.76,-10.89976
16.78,-10.92087
16.8,-10.94198
16.82,-10.96309
16.84,-10.98421
16.86,-11.00532
16.88,-11.02643
16.9,-11.04754
16.92,-11.06865
16.94,-11.08976
16.96,-11.11087
16.98,-11.13199
17,-11.1531
17.02,-11.17421
17.04,-11.19532
17.06,-11.21643
17.08,-11.23754
17.1,-11.25865
17.12,-11.27977
17.14,-11.30088
17.16,-11.32199
17.18,-11.3431
17.2,-11.36421
17.22,-11.38532
17.24,-11.40644
17.26,-11.42755
17.28,-11.44866
17.3,-11.46977
17.32,-11.49088
17.34,-11.51199
17.36,-11.5331
17.38,-11.55422
17.4,-11.57533
17.42,-11.59644
17.44,-11.61755
17.46,-11.63866
17.48,-11.65977
17.5,-11.68088
17.52,-11.702
17.54,-11.72311
17.56,-11.74422
17.58,-11.76533
17.6,-11.78644
17.62,-11.80755
17.64,-11.82866
17.66,-11.84978
17.68,-11.87089
17.7,-11.892
17.72,-11.91311
17.74,-11.93422
17.76,-11.95533
17.78,-11.97645
17.8,-11.99756
17.82,-12.01867
17.84,-12.03978
17.86,-12.06089
17.88,-12.082
17.9,-12.10311
17.92,-12.12423
17.94,-12.14534
17.96,-12.16645
17.98,-12.18756
18,-12.20867
18.02,-12.22978
18.04,-12.25089
18.06,-12.27201
18.08,-12.29312
18.1,-12.31423
18.12,-12.33534
18.14,-12.35645
18.16,-12.37756
18.18,-12.39867
18.2,-12.41979
18.22,-12.4409
18.24,-12.46201
18.26,-12.48312
18.28,-12.50423
18.3,-12.52534
18.32,-12.54646
18.34,-12.56757
18.36,-12.58868
18.38,-12.60979
18.4,-12.6309
18.42,-12.65201
18.44,-12.67312
18.46,-12.69424
18.48,-12.71535
18.5,-12.73646
18.52,-12.75757
18.54,-12.77868
18.56,-12.79979
18.58,-12.8209
18.6,-12.84202
18.62,-12.86313
18.64,-12.88424
18.66,-12.90535
18.68,-12.92646
18.7,-12.94757
18.72,-12.96869
18.74,-12.9898
18.76,-13.01091
18.78,-13.03202
18.8,-13.05313
18.82,-13.07424
18.84,-13.09535
18.86,-13.11647
18.88,-13.13758
18.9,-13.15869
18.92,-13.1798
18.94,-13.20091
18.96,-13.22202
18.98,-13.24313
19,-13.26425
19.02,-13.28536
19.04,-13.30647
19.06,-13.32758
19.08,-13.34869
19.1,-13.3698
19.12,-13.39091
19.14,-13.41203
19.16,-13.43314
19.18,-13.45425
19.2,-13.47536
19.22,-13.49647
19.24,-13.51758
19.26,-13.5387
19.28,-13.55981
19.3,-13.58092
19.32,-13.60203
19.34,-13.62314
19.36,-13.64425
19.38,-13.66536
19.4,-13.68648
19.42,-13.70759
19.44,-13.7287
19.46,-13.74981
19.48,-13.77092
19.5,-13.79203
19.52,-13.81314
19.54,-13.83426
19.56,-13.85537
19.58,-13.87648
19.6,-13.89759
19.62,-13.9187
19.64,-13.93981
19.66,-13.96093
19.68,-13.98204
19.7,-14.00315
19.72,-14.02426
19.74,-14.04537
19.76,-14.06648
19.78,-14.08759
19.8,-14.10871
19.82,-14.12982
19.84,-14.15093
19.86,-14.17204
19.88,-14.19315
19.9,-14.21426
19.92,-14.23537
19.94,-14.25649
19.96,-14.2776
19.98,-14.29871
20,-14.31982
20.02,-14.34093
20.04,-14.36204
20.06,-14.38315
20.08,-14.40427
20.1,-14.42538
20.12,-14.44649
20.14,-14.4676
20.16,-14.48871
20.18,-14.50982
20.2,-14.53094
20.22,-14.55205
20.24,-14.57316
20.26,-14.59427
20.28,-14.61538
20.3,-14.63649
20.32,-14.6576
20.34,-14.67872
20.36,-14.69983
20.38,-14.72094
20.4,-14.74205
20.42,-14.76316
20.44,-14.78427
20.46,-14.80538
20.48,-14.8265
20.5,-14.84761
20.52,-14.86872
20.54,-14.88983
20.56,-14.91094
20.58,-14.93205
20.6,-14.95317
20.62,-14.97428
20.64,-14.99539
20.66,-15.0165
20.68,-15.03761
20.7,-15.05872
20.72,-15.07983
20.74,-15.10095
20.76,-15.12206
20.78,-15.14317
20.8,-15.16428
20.82,-15.18539
20.84,-15.2065
20.86,-15.22761
20.88,-15.24873
20.9,-15.26984
20.92,-15.29095
20.94,-15.31206
20.96,-15.33317
20.98,-15.35428
21,-15.37539
21.02,-15.39651
21.04,-15.41762
21.06,-15.43873
21.08,-15.45984
21.1,-15.48095
21.12,-15.50206
21.14,-15.52318
21.16,-15.54429
21.18,-15.5654
21.2,-15.58651
21.22,-15.60762
21.24,-15.62873
21.26,-15.64984
21.28,-15.67096
21.3,-15.69207
21.32,-15.71318
21.34,-15.73429
21.36,-15.7554
21.38,-15.77651
21.4,-15.79762
21.42,-15.81874
21.44,-15.83985
21.46,-15.86096
21.48,-15.88207
21.5,-15.90318
21.52,-15.92429
21.54,-15.94541
21.56,-15.96652
21.58,-15.98763
21.6,-16.00874
21.62,-16.02985
21.64,-16.05096
21.66,-16.07207
21.68,-16.09319
21.7,-16.1143
21.72,-16.13541
21.74,-16.15652
21.76,-16.17763
21.78,-16.19875
21.8,-16.21986
21.82,-16.24097
21.84,-16.26208
21.86,-16.28319
21.88,-16.3043
21.9,-16.32542
21.92,-16.34653
21.94,-16.36764
21.96,-16.38875
21.98,-16.40986
22,-16.43097
22.02,-16.45209
22.04,-16.4732
22.06,-16.49431
22.08,-16.51542
22.1,-16.53654
22.12,-16.55765
22.14,-16.57876
22.16,-16.59987
22.18,-16.62098
22.2,-16.64209
22.22,-16.66321
22.24,-16.68432
22.26,-16.70543
22.28,-16.72654
22.3,-16.74765
22.32,-16.76876
22.34,-16.78988
22.36,-16.81099
22.38,-16.8321
22.4,-16.85321
22.42,-16.87432
22.44,-16.89544
22.46,-16.91655
22.48,-16.93766
22.5,-16.95877
22.52,-16.97988
22.54,-17.00099
22.56,-17.02211
22.58,-17.04322
22.6,-17.06433
22.62,-17.08544
22.64,-17.10655
22.66,-17.12766
22.68,-17.14878
22.7,-17.16989
22.72,-17.191
22.74,-17.21211
22.76,-17.23322
22.78,-17.25434
22.8,-17.27545
22.82,-17.29656
22.84,-17.31767
22.86,-17.33878
22.88,-17.3599
22.9,-17.38101
22.92,-17.40212
22.94,-17.42323
22.96,-17.44434
22.98,-17.46545
23,-17.48657
23.02,-17.50768
23.04,-17.52879
23.06,-17.5499
23.08,-17.57101
23.1,-17.59213
23.12,-17.61324
23.14,-17.63435
23.16,-17.65546
23.18,-17.67658
23.2,-17.69769
23.22,-17.7188
23.24,-17.73991
23.26,-17.76103
23.28,-17.78214
23.3,-17.80325
23.32,-17.82436
23.34,-17.84548
23.36,-17.86659
23.38,-17.8877
23.4,-17.90881
23.42,-17.92993
23.44,-17.95104
23.46,-17.97215
23.48,-17.99326
23.5,-18.01438
23.52,-18.03549
23.54,-18.0566
23.56,-18.07771
23.58,-18.09883
23.6,-18.11994
23.62,-18.14105
23.64,-18.16216
23.66,-18.18328
23.68,-18.20439
23.7,-18.2255
23.72,-18.24661
23.74,-18.26772
23.76,-18.28884
